# Bragg version, Data file type
2.4 1
# RN = (e^2/(m c^2))/V) [cm^-2], d spacing [cm]
   1.7593982e+09   7.8385403e-09
# Number of different element-sites in unit cell NBATOM:
           1
# for each element-site, the atomic number
      14
# for each element-site, the occupation factor
       1.0000000
# for each element-site, the temperature factor
      1.00000
# for each type of element-site, COOR_NR=G_0
       8.0000000
# for each type of element-site, G and G_BAR (both complex)
(       8.0000000,  -8.8174570e-15)
(       8.0000000,   8.8174570e-15)
# for each type of element-site, the number of f0 coefficients followed by them
11       4.98817       3.35710       1.50292       1.22173       2.76144      0.151424       2.53600       29.9758     0.0825494       88.7351       1.16712 
# The number of energy points NPOINT: 
         361
# for each energy point, energy, F1(1),F2(1),...,F1(nbatom),F2(nbatom)
       2000.0000
      -1.9760466       3.6994328       1.0007505
       2050.0000
      -1.6098652       3.5740297       1.0007785
       2100.0000
      -1.3260365       3.4508657       1.0008100
       2150.0000
      -1.0973949       3.3331025       1.0008439
       2200.0000
     -0.90731621       3.2204700       1.0008811
       2250.0000
     -0.74812603       3.1130905       1.0009203
       2300.0000
     -0.61023712       3.0102098       1.0009623
       2350.0000
     -0.49248505       2.9121349       1.0010065
       2400.0000
     -0.38953972       2.8182790       1.0010529
       2450.0000
     -0.29862404       2.7283611       1.0011018
       2500.0000
     -0.21903324       2.6425464       1.0011531
       2550.0000
     -0.14875793       2.5606291       1.0012062
       2600.0000
    -0.085985184       2.4820914       1.0012614
       2650.0000
    -0.029985428       2.4067540       1.0013183
       2700.0000
     0.020155907       2.3346596       1.0013776
       2750.0000
     0.064899445       2.2655988       1.0014382
       2800.0000
      0.10469818       2.1995318       1.0014999
       2850.0000
      0.14065933       2.1362600       1.0015637
       2900.0000
      0.17299175       2.0754111       1.0016279
       2950.0000
      0.20202160       2.0170186       1.0016926
       3000.0000
      0.22817421       1.9610088       1.0017595
       3050.0000
      0.25175762       1.9072043       1.0018256
       3100.0000
      0.27299500       1.8554856       1.0018926
       3150.0000
      0.29213905       1.8057704       1.0019605
       3200.0000
      0.30938148       1.7579695       1.0020294
       3250.0000
      0.32485294       1.7119875       1.0020980
       3300.0000
      0.33876038       1.6677244       1.0021678
       3350.0000
      0.35127544       1.6250966       1.0022385
       3400.0000
      0.36247253       1.5840256       1.0023101
       3450.0000
      0.37253952       1.5444331       1.0023828
       3500.0000
      0.38157558       1.5062580       1.0024549
       3550.0000
      0.38953781       1.4694215       1.0025288
       3600.0000
      0.39652157       1.4340497       1.0026044
       3650.0000
      0.40275383       1.3998903       1.0026813
       3700.0000
      0.40826893       1.3668915       1.0027570
       3750.0000
      0.41313839       1.3349826       1.0028349
       3800.0000
      0.41739941       1.3040998       1.0029154
       3850.0000
      0.42104435       1.2741939       1.0029949
       3900.0000
      0.42409706       1.2454617       1.0030765
       3950.0000
      0.42673016       1.2176816       1.0031608
       4000.0000
      0.42894554       1.1907456       1.0032466
       4050.0000
      0.43076706       1.1646050       1.0033313
       4100.0000
      0.43222237       1.1392680       1.0034192
       4150.0000
      0.43322754       1.1149311       1.0035079
       4200.0000
      0.43396759       1.0912820       1.0035995
       4250.0000
      0.43447876       1.0682791       1.0036915
       4300.0000
      0.43477058       1.0459719       1.0037852
       4350.0000
      0.43467045       1.0245047       1.0038829
       4400.0000
      0.43442059       1.0035869       1.0039781
       4450.0000
      0.43403530      0.98319209       1.0040768
       4500.0000
      0.43334007      0.96358150       1.0041760
       4550.0000
      0.43251801      0.94450045       1.0042770
       4600.0000
      0.43157864      0.92585456       1.0043811
       4650.0000
      0.43043423      0.90785861       1.0044839
       4700.0000
      0.42916107      0.89039636       1.0045911
       4750.0000
      0.42781353      0.87330121       1.0046951
       4800.0000
      0.42637920      0.85679781       1.0048035
       4850.0000
      0.42478848      0.84076369       1.0049099
       4900.0000
      0.42310905      0.82503599       1.0050203
       4950.0000
      0.42134094      0.80989707       1.0051316
       5000.0000
      0.41952133      0.79510427       1.0052477
       5050.0000
      0.41765690      0.78062516       1.0053596
       5100.0000
      0.41570759      0.76669514       1.0054748
       5150.0000
      0.41372490      0.75298369       1.0055924
       5200.0000
      0.41167927      0.73970276       1.0057107
       5250.0000
      0.40957928      0.72678536       1.0058284
       5300.0000
      0.40744686      0.71409136       1.0059484
       5350.0000
      0.40529156      0.70189279       1.0060694
       5400.0000
      0.40311813      0.68984443       1.0061923
       5450.0000
      0.40088081      0.67820913       1.0063140
       5500.0000
      0.39863396      0.66681451       1.0064396
       5550.0000
      0.39637566      0.65568900       1.0065645
       5600.0000
      0.39410400      0.64489120       1.0066945
       5650.0000
      0.39182663      0.63423353       1.0068205
       5700.0000
      0.38953304      0.62399668       1.0069530
       5750.0000
      0.38723564      0.61383837       1.0070804
       5800.0000
      0.38492203      0.60409659       1.0072133
       5850.0000
      0.38261700      0.59444505       1.0073454
       5900.0000
      0.38034058      0.58512855       1.0074806
       5950.0000
      0.37805843      0.57593858       1.0076174
       6000.0000
      0.37576675      0.56701326       1.0077540
       6050.0000
      0.37346840      0.55824900       1.0078915
       6100.0000
      0.37116146      0.54972255       1.0080263
       6150.0000
      0.36887074      0.54136401       1.0081675
       6200.0000
      0.36660004      0.53320795       1.0083067
       6250.0000
      0.36434746      0.52522260       1.0084493
       6300.0000
      0.36211300      0.51742893       1.0085938
       6350.0000
      0.35987282      0.50978035       1.0087353
       6400.0000
      0.35762501      0.50230402       1.0088833
       6450.0000
      0.35541248      0.49497527       1.0090269
       6500.0000
      0.35324860      0.48785841       1.0091754
       6550.0000
      0.35108089      0.48083895       1.0093251
       6600.0000
      0.34890461      0.47401676       1.0094722
       6650.0000
      0.34674549      0.46725982       1.0096258
       6700.0000
      0.34465027      0.46073827       1.0097749
       6750.0000
      0.34255695      0.45423675       1.0099280
       6800.0000
      0.34049511      0.44800499       1.0100846
       6850.0000
      0.33843327      0.44177321       1.0102362
       6900.0000
      0.33640003      0.43578652       1.0103942
       6950.0000
      0.33437157      0.42983106       1.0105514
       7000.0000
      0.33239365      0.42405057       1.0107089
       7050.0000
      0.33044147      0.41835657       1.0108731
       7100.0000
      0.32850170      0.41276678       1.0110298
       7150.0000
      0.32658005      0.40732357       1.0111904
       7200.0000
      0.32466793      0.40191078       1.0113562
       7250.0000
      0.32281971      0.39671010       1.0115145
       7300.0000
      0.32097244      0.39150941       1.0116791
       7350.0000
      0.31914806      0.38649130       1.0118464
       7400.0000
      0.31732941      0.38151920       1.0120098
       7450.0000
      0.31555939      0.37664315       1.0121796
       7500.0000
      0.31385326      0.37189242       1.0123498
       7550.0000
      0.31214809      0.36714831       1.0125176
       7600.0000
      0.31046867      0.36260986       1.0126920
       7650.0000
      0.30879021      0.35807139       1.0128633
       7700.0000
      0.30717373      0.35365185       1.0130308
       7750.0000
      0.30560207      0.34931517       1.0132047
       7800.0000
      0.30404186      0.34499910       1.0133780
       7850.0000
      0.30257416      0.34085339       1.0135503
       7900.0000
      0.30110741      0.33670768       1.0137291
       7950.0000
      0.29967594      0.33267117       1.0139101
       8000.0000
      0.29827118      0.32871166       1.0140921
       8050.0000
      0.29686832      0.32475641       1.0142699
       8100.0000
      0.29556274      0.32097194       1.0144492
       8150.0000
      0.29425716      0.31718749       1.0146258
       8200.0000
      0.29299164      0.31347454       1.0148088
       8250.0000
      0.29178238      0.30986023       1.0149951
       8300.0000
      0.29057217      0.30624595       1.0151739
       8350.0000
      0.28946400      0.30275798       1.0153590
       8400.0000
      0.28838539      0.29930675       1.0155507
       8450.0000
      0.28732109      0.29586855       1.0157324
       8500.0000
      0.28640556      0.29256877       1.0159200
       8550.0000
      0.28549099      0.28926900       1.0161143
       8600.0000
      0.28463173      0.28602171       1.0163016
       8650.0000
      0.28387547      0.28287014       1.0164893
       8700.0000
      0.28311920      0.27971858       1.0166834
       8750.0000
      0.28249264      0.27664927       1.0168776
       8800.0000
      0.28196144      0.27364007       1.0170664
       8850.0000
      0.28142929      0.27063084       1.0172614
       8900.0000
      0.28111553      0.26772347       1.0174631
       8950.0000
      0.28087139      0.26484886       1.0176563
       9000.0000
      0.28062725      0.26197422       1.0178548
       9050.0000
      0.28075314      0.25921455       1.0180600
       9100.0000
      0.28092480      0.25646913       1.0182606
       9150.0000
      0.28109646      0.25372368       1.0184542
       9200.0000
      0.28185940      0.25109771       1.0186539
       9250.0000
      0.28263569      0.24847458       1.0188601
       9300.0000
      0.28343105      0.24585344       1.0190576
       9350.0000
      0.28529263      0.24334961       1.0192596
       9400.0000
      0.28715420      0.24084578       1.0194680
       9450.0000
      0.28903770      0.23834291       1.0196782
       9500.0000
      0.29351902      0.23595053       1.0198818
       9550.0000
      0.29800129      0.23355816       1.0200918
       9600.0000
      0.30248260      0.23116580       1.0203084
       9650.0000
      0.31755829      0.22887672       1.0205177
       9700.0000
      0.33317184      0.22659290       1.0207237
       9750.0000
      0.34878635      0.22430907       1.0209360
       9800.0000
      0.33976364      0.22211194       1.0211549
       9850.0000
      0.32623577      0.21993066       1.0213637
       9900.0000
      0.31270695      0.21774937       1.0215753
       9950.0000
      0.29618931      0.21563585       1.0217934
       10000.000
      0.27832222      0.21355291       1.0220181
       10050.000
      0.26045513      0.21146996       1.0222238
       10100.000
      0.24910069      0.20943262       1.0224355
       10150.000
      0.24474430      0.20744428       1.0226532
       10200.000
      0.24038887      0.20545593       1.0228774
       10250.000
      0.23599434      0.20348746       1.0231011
       10300.000
      0.23146534      0.20158860       1.0233316
       10350.000
      0.22693634      0.19968975       1.0235690
       10400.000
      0.22240734      0.19779089       1.0238059
       10450.000
      0.21856689      0.19597059       1.0240172
       10500.000
      0.21479321      0.19415805       1.0242342
       10550.000
      0.21102047      0.19234551       1.0244573
       10600.000
      0.20755005      0.19057734       1.0246866
       10650.000
      0.20433426      0.18884635       1.0249076
       10700.000
      0.20111752      0.18711536       1.0251346
       10750.000
      0.19795036      0.18539409       1.0253679
       10800.000
      0.19513130      0.18374161       1.0256078
       10850.000
      0.19231129      0.18208915       1.0258384
       10900.000
      0.18949223      0.18043667       1.0260712
       10950.000
      0.18688583      0.17883292       1.0263105
       11000.000
      0.18439388      0.17725562       1.0265565
       11050.000
      0.18190289      0.17567833       1.0267988
       11100.000
      0.17944145      0.17410922       1.0270404
       11150.000
      0.17721176      0.17260253       1.0272886
       11200.000
      0.17498207      0.17109585       1.0275439
       11250.000
      0.17275238      0.16958916       1.0277930
       11300.000
      0.17062855      0.16811873       1.0280284
       11350.000
      0.16859913      0.16668071       1.0282701
       11400.000
      0.16656876      0.16524270       1.0285181
       11450.000
      0.16453934      0.16380468       1.0287727
       11500.000
      0.16268158      0.16242456       1.0290049
       11550.000
      0.16084671      0.16105220       1.0292428
       11600.000
      0.15901184      0.15967983       1.0294868
       11650.000
      0.15720081      0.15831842       1.0297371
       11700.000
      0.15550137      0.15700828       1.0299915
       11750.000
      0.15380192      0.15569812       1.0302489
       11800.000
      0.15210247      0.15438798       1.0305131
       11850.000
      0.15046787      0.15310213       1.0307844
       11900.000
      0.14892578      0.15185121       1.0310630
       11950.000
      0.14738369      0.15060030       1.0313049
       12000.000
      0.14584160      0.14934938       1.0315527
       12050.000
      0.14434433      0.14813210       1.0318064
       12100.000
      0.14287853      0.14693879       1.0320665
       12150.000
      0.14141369      0.14574547       1.0323311
       12200.000
      0.13994884      0.14455216       1.0325948
       12250.000
      0.13856888      0.14339602       1.0328652
       12300.000
      0.13722706      0.14225627       1.0331424
       12350.000
      0.13588524      0.14111651       1.0334268
       12400.000
      0.13454342      0.13997677       1.0336928
       12450.000
      0.13327408      0.13887598       1.0339478
       12500.000
      0.13202858      0.13778858       1.0342088
       12550.000
      0.13078403      0.13670117       1.0344758
       12600.000
      0.12953854      0.13561377       1.0347493
       12650.000
      0.12836170      0.13456234       1.0350248
       12700.000
      0.12720966      0.13352436       1.0353040
       12750.000
      0.12605762      0.13248636       1.0355899
       12800.000
      0.12490559      0.13144837       1.0358828
       12850.000
      0.12379742      0.13044125       1.0361831
       12900.000
      0.12271214      0.12945089       1.0364605
       12950.000
      0.12162685      0.12846054       1.0367367
       13000.000
      0.12054253      0.12747018       1.0370194
       13050.000
      0.11948967      0.12650207       1.0373087
       13100.000
      0.11846828      0.12555620       1.0376050
       13150.000
      0.11744785      0.12461033       1.0378846
       13200.000
      0.11642647      0.12366446       1.0381646
       13250.000
      0.11542416      0.12273118       1.0384508
       13300.000
      0.11446667      0.12182903       1.0387436
       13350.000
      0.11350918      0.12092689       1.0390430
       13400.000
      0.11255169      0.12002473       1.0393363
       13450.000
      0.11159420      0.11912283       1.0396273
       13500.000
      0.11069775      0.11826168       1.0399248
       13550.000
      0.10980129      0.11740053       1.0402291
       13600.000
      0.10890484      0.11653938       1.0405404
       13650.000
      0.10800838      0.11567824       1.0408444
       13700.000
      0.10713673      0.11484305       1.0411332
       13750.000
      0.10627651      0.11402147       1.0414283
       13800.000
      0.10541725      0.11319990       1.0417297
       13850.000
      0.10455799      0.11237833       1.0420377
       13900.000
      0.10371208      0.11156543       1.0423526
       13950.000
      0.10291100      0.11078092       1.0426527
       14000.000
      0.10210991      0.10999642       1.0429592
       14050.000
      0.10130787      0.10921191       1.0432723
       14100.000
      0.10050678      0.10842741       1.0435924
       14150.000
     0.099747658      0.10766988       1.0439195
       14200.000
     0.099002838      0.10692174       1.0442319
       14250.000
     0.098258018      0.10617360       1.0445361
       14300.000
     0.097513199      0.10542547       1.0448466
       14350.000
     0.096775055      0.10468328       1.0451636
       14400.000
     0.096063614      0.10396896       1.0454874
       14450.000
     0.095352173      0.10325465       1.0458181
       14500.000
     0.094639778      0.10254033       1.0461355
       14550.000
     0.093928337      0.10182601       1.0464596
       14600.000
     0.093235016      0.10112958       1.0467904
       14650.000
     0.092556000      0.10044849       1.0471282
       14700.000
     0.091877937     0.099767402       1.0474733
       14750.000
     0.091198921     0.099086322       1.0478109
       14800.000
     0.090520859     0.098405235       1.0481329
       14850.000
     0.089884758     0.097749494       1.0484614
       14900.000
     0.089259148     0.097099245       1.0487967
       14950.000
     0.088632584     0.096448995       1.0491389
       15000.000
     0.088006020     0.095798746       1.0494884
       15050.000
     0.087380409     0.095149450       1.0498012
       15100.000
     0.086764336     0.094529070       1.0501379
       15150.000
     0.086147308     0.093908690       1.0504814
       15200.000
     0.085531235     0.093288317       1.0508320
       15250.000
     0.084915161     0.092667937       1.0511897
       15300.000
     0.084306717     0.092052206       1.0515549
       15350.000
     0.083741188     0.091460176       1.0518985
       15400.000
     0.083174706     0.090868138       1.0522414
       15450.000
     0.082609177     0.090276107       1.0525911
       15500.000
     0.082042694     0.089684069       1.0529477
       15550.000
     0.081482887     0.089097954       1.0533115
       15600.000
     0.080945969     0.088533074       1.0536826
       15650.000
     0.080408096     0.087968193       1.0540280
       15700.000
     0.079871178     0.087403305       1.0543716
       15750.000
     0.079334259     0.086838424       1.0547217
       15800.000
     0.078802109     0.086278535       1.0550784
       15850.000
     0.078292847     0.085739680       1.0554420
       15900.000
     0.077784538     0.085200816       1.0558127
       15950.000
     0.077275276     0.084661961       1.0561761
       16000.000
     0.076766014     0.084123097       1.0565366
       16050.000
     0.076257706     0.083586320       1.0569039
       16100.000
     0.075757027     0.083072297       1.0572782
       16150.000
     0.075256348     0.082558282       1.0576598
       16200.000
     0.074755669     0.082044259       1.0580488
       16250.000
     0.074254990     0.081530236       1.0584333
       16300.000
     0.073754311     0.081016213       1.0588067
       16350.000
     0.073293686     0.080523103       1.0591872
       16400.000
     0.072838783     0.080032527       1.0595749
       16450.000
     0.072383881     0.079541951       1.0599701
       16500.000
     0.071928978     0.079051375       1.0603729
       16550.000
     0.071474075     0.078560799       1.0607736
       16600.000
     0.071022987     0.078084186       1.0611410
       16650.000
     0.070575714     0.077616200       1.0615148
       16700.000
     0.070127487     0.077148214       1.0618954
       16750.000
     0.069680214     0.076680228       1.0622829
       16800.000
     0.069231987     0.076212242       1.0626775
       16850.000
     0.068796158     0.075749800       1.0630793
       16900.000
     0.068391800     0.075303286       1.0634697
       16950.000
     0.067987442     0.074856780       1.0638545
       17000.000
     0.067584038     0.074410267       1.0642461
       17050.000
     0.067179680     0.073963754       1.0646447
       17100.000
     0.066776276     0.073517241       1.0650505
       17150.000
     0.066377640     0.073087387       1.0654637
       17200.000
     0.065979958     0.072661385       1.0658845
       17250.000
     0.065582275     0.072235383       1.0662887
       17300.000
     0.065184593     0.071809374       1.0667002
       17350.000
     0.064786911     0.071383372       1.0671189
       17400.000
     0.064391136     0.070962869       1.0675452
       17450.000
     0.064000130     0.070556648       1.0679793
       17500.000
     0.063609123     0.070150428       1.0684213
       17550.000
     0.063218117     0.069744207       1.0688487
       17600.000
     0.062827110     0.069337986       1.0692490
       17650.000
     0.062436104     0.068931766       1.0696560
       17700.000
     0.062071800     0.068537600       1.0700700
       17750.000
     0.061721802     0.068149865       1.0704910
       17800.000
     0.061371803     0.067762136       1.0709193
       17850.000
     0.061021805     0.067374401       1.0713551
       17900.000
     0.060671806     0.066986673       1.0717851
       17950.000
     0.060321808     0.066598937       1.0722023
       18000.000
     0.059976578     0.066228047       1.0726264
       18050.000
     0.059632301     0.065858260       1.0730577
       18100.000
     0.059288025     0.065488480       1.0734963
       18150.000
     0.058943748     0.065118693       1.0739426
       18200.000
     0.058599472     0.064748913       1.0743965
       18250.000
     0.058258057     0.064381346       1.0748453
       18300.000
     0.057936668     0.064028621       1.0752816
       18350.000
     0.057614326     0.063675888       1.0757253
       18400.000
     0.057291985     0.063323162       1.0761765
       18450.000
     0.056970596     0.062970437       1.0766355
       18500.000
     0.056648254     0.062617704       1.0771023
       18550.000
     0.056327820     0.062268659       1.0775772
       18600.000
     0.056011200     0.061932087       1.0780400
       18650.000
     0.055693626     0.061595511       1.0784796
       18700.000
     0.055377007     0.061258938       1.0789262
       18750.000
     0.055060387     0.060922362       1.0793799
       18800.000
     0.054743767     0.060585789       1.0798410
       18850.000
     0.054431915     0.060252827       1.0803095
       18900.000
     0.054136276     0.059931822       1.0807858
       18950.000
     0.053840637     0.059610818       1.0812700
       19000.000
     0.053544998     0.059289813       1.0817221
       19050.000
     0.053250313     0.058968809       1.0821813
       19100.000
     0.052954674     0.058647804       1.0826479
       19150.000
     0.052661896     0.058328841       1.0831220
       19200.000
     0.052387238     0.058022607       1.0836038
       19250.000
     0.052112579     0.057716373       1.0840935
       19300.000
     0.051838875     0.057410140       1.0845912
       19350.000
     0.051564217     0.057103906       1.0850750
       19400.000
     0.051289558     0.056797672       1.0855515
       19450.000
     0.051014900     0.056491438       1.0860355
       19500.000
     0.050744057     0.056198645       1.0865273
       19550.000
     0.050474167     0.055906620       1.0870270
       19600.000
     0.050204277     0.055614598       1.0875348
       19650.000
     0.049934387     0.055322573       1.0880510
       19700.000
     0.049664497     0.055030547       1.0885648
       19750.000
     0.049393654     0.054738525       1.0890430
       19800.000
     0.049126625     0.054455075       1.0895285
       19850.000
     0.048860550     0.054176204       1.0900215
       19900.000
     0.048594475     0.053897336       1.0905221
       19950.000
     0.048329353     0.053618465       1.0910305
       20000.000
     0.048063278     0.053339593       1.0915469
