# Bragg version, Data file type
2.4 1
# RN = (e^2/(m c^2))/V) [cm^-2], d spacing [cm]
   1.7593982e+09   6.2708322e-09
# Number of different element-sites in unit cell NBATOM:
           1
# for each element-site, the atomic number
      14
# for each element-site, the occupation factor
       1.0000000
# for each element-site, the temperature factor
      1.00000
# for each type of element-site, COOR_NR=G_0
       8.0000000
# for each type of element-site, G and G_BAR (both complex)
(       4.0000000,      -4.0000000)
(       4.0000000,       4.0000000)
# for each type of element-site, the number of f0 coefficients followed by them
11       4.98817       3.35710       1.50292       1.22173       2.76144      0.151424       2.53600       29.9758     0.0825494       88.7351       1.16712 
# The number of energy points NPOINT: 
         361
# for each energy point, energy, F1(1),F2(1),...,F1(nbatom),F2(nbatom)
       2000.0000
      -1.9760466       3.6994328       1.0000122
       2050.0000
      -1.6098652       3.5740297       1.0000131
       2100.0000
      -1.3260365       3.4508657       1.0000142
       2150.0000
      -1.0973949       3.3331025       1.0000153
       2200.0000
     -0.90731621       3.2204700       1.0000165
       2250.0000
     -0.74812603       3.1130905       1.0000178
       2300.0000
     -0.61023712       3.0102098       1.0000192
       2350.0000
     -0.49248505       2.9121349       1.0000207
       2400.0000
     -0.38953972       2.8182790       1.0000224
       2450.0000
     -0.29862404       2.7283611       1.0000241
       2500.0000
     -0.21903324       2.6425464       1.0000259
       2550.0000
     -0.14875793       2.5606291       1.0000279
       2600.0000
    -0.085985184       2.4820914       1.0000300
       2650.0000
    -0.029985428       2.4067540       1.0000322
       2700.0000
     0.020155907       2.3346596       1.0000345
       2750.0000
     0.064899445       2.2655988       1.0000369
       2800.0000
      0.10469818       2.1995318       1.0000395
       2850.0000
      0.14065933       2.1362600       1.0000421
       2900.0000
      0.17299175       2.0754111       1.0000449
       2950.0000
      0.20202160       2.0170186       1.0000478
       3000.0000
      0.22817421       1.9610088       1.0000508
       3050.0000
      0.25175762       1.9072043       1.0000539
       3100.0000
      0.27299500       1.8554856       1.0000571
       3150.0000
      0.29213905       1.8057704       1.0000604
       3200.0000
      0.30938148       1.7579695       1.0000638
       3250.0000
      0.32485294       1.7119875       1.0000673
       3300.0000
      0.33876038       1.6677244       1.0000710
       3350.0000
      0.35127544       1.6250966       1.0000747
       3400.0000
      0.36247253       1.5840256       1.0000786
       3450.0000
      0.37253952       1.5444331       1.0000826
       3500.0000
      0.38157558       1.5062580       1.0000867
       3550.0000
      0.38953781       1.4694215       1.0000910
       3600.0000
      0.39652157       1.4340497       1.0000954
       3650.0000
      0.40275383       1.3998903       1.0000999
       3700.0000
      0.40826893       1.3668915       1.0001045
       3750.0000
      0.41313839       1.3349826       1.0001093
       3800.0000
      0.41739941       1.3040998       1.0001143
       3850.0000
      0.42104435       1.2741939       1.0001194
       3900.0000
      0.42409706       1.2454617       1.0001247
       3950.0000
      0.42673016       1.2176816       1.0001302
       4000.0000
      0.42894554       1.1907456       1.0001359
       4050.0000
      0.43076706       1.1646050       1.0001416
       4100.0000
      0.43222237       1.1392680       1.0001476
       4150.0000
      0.43322754       1.1149311       1.0001538
       4200.0000
      0.43396759       1.0912820       1.0001603
       4250.0000
      0.43447876       1.0682791       1.0001668
       4300.0000
      0.43477058       1.0459719       1.0001736
       4350.0000
      0.43467045       1.0245047       1.0001807
       4400.0000
      0.43442059       1.0035869       1.0001879
       4450.0000
      0.43403530      0.98319209       1.0001953
       4500.0000
      0.43334007      0.96358150       1.0002029
       4550.0000
      0.43251801      0.94450045       1.0002107
       4600.0000
      0.43157864      0.92585456       1.0002189
       4650.0000
      0.43043423      0.90785861       1.0002271
       4700.0000
      0.42916107      0.89039636       1.0002357
       4750.0000
      0.42781353      0.87330121       1.0002444
       4800.0000
      0.42637920      0.85679781       1.0002534
       4850.0000
      0.42478848      0.84076369       1.0002624
       4900.0000
      0.42310905      0.82503599       1.0002718
       4950.0000
      0.42134094      0.80989707       1.0002816
       5000.0000
      0.41952133      0.79510427       1.0002916
       5050.0000
      0.41765690      0.78062516       1.0003017
       5100.0000
      0.41570759      0.76669514       1.0003121
       5150.0000
      0.41372490      0.75298369       1.0003228
       5200.0000
      0.41167927      0.73970276       1.0003338
       5250.0000
      0.40957928      0.72678536       1.0003450
       5300.0000
      0.40744686      0.71409136       1.0003564
       5350.0000
      0.40529156      0.70189279       1.0003682
       5400.0000
      0.40311813      0.68984443       1.0003802
       5450.0000
      0.40088081      0.67820913       1.0003924
       5500.0000
      0.39863396      0.66681451       1.0004050
       5550.0000
      0.39637566      0.65568900       1.0004177
       5600.0000
      0.39410400      0.64489120       1.0004310
       5650.0000
      0.39182663      0.63423353       1.0004443
       5700.0000
      0.38953304      0.62399668       1.0004583
       5750.0000
      0.38723564      0.61383837       1.0004721
       5800.0000
      0.38492203      0.60409659       1.0004865
       5850.0000
      0.38261700      0.59444505       1.0005012
       5900.0000
      0.38034058      0.58512855       1.0005163
       5950.0000
      0.37805843      0.57593858       1.0005317
       6000.0000
      0.37576675      0.56701326       1.0005473
       6050.0000
      0.37346840      0.55824900       1.0005633
       6100.0000
      0.37116146      0.54972255       1.0005793
       6150.0000
      0.36887074      0.54136401       1.0005961
       6200.0000
      0.36660004      0.53320795       1.0006130
       6250.0000
      0.36434746      0.52522260       1.0006304
       6300.0000
      0.36211300      0.51742893       1.0006482
       6350.0000
      0.35987282      0.50978035       1.0006660
       6400.0000
      0.35762501      0.50230402       1.0006846
       6450.0000
      0.35541248      0.49497527       1.0007031
       6500.0000
      0.35324860      0.48785841       1.0007224
       6550.0000
      0.35108089      0.48083895       1.0007420
       6600.0000
      0.34890461      0.47401676       1.0007616
       6650.0000
      0.34674549      0.46725982       1.0007821
       6700.0000
      0.34465027      0.46073827       1.0008025
       6750.0000
      0.34255695      0.45423675       1.0008236
       6800.0000
      0.34049511      0.44800499       1.0008452
       6850.0000
      0.33843327      0.44177321       1.0008668
       6900.0000
      0.33640003      0.43578652       1.0008892
       6950.0000
      0.33437157      0.42983106       1.0009118
       7000.0000
      0.33239365      0.42405057       1.0009348
       7050.0000
      0.33044147      0.41835657       1.0009587
       7100.0000
      0.32850170      0.41276678       1.0009822
       7150.0000
      0.32658005      0.40732357       1.0010065
       7200.0000
      0.32466793      0.40191078       1.0010316
       7250.0000
      0.32281971      0.39671010       1.0010563
       7300.0000
      0.32097244      0.39150941       1.0010820
       7350.0000
      0.31914806      0.38649130       1.0011083
       7400.0000
      0.31732941      0.38151920       1.0011345
       7450.0000
      0.31555939      0.37664315       1.0011618
       7500.0000
      0.31385326      0.37189242       1.0011894
       7550.0000
      0.31214809      0.36714831       1.0012172
       7600.0000
      0.31046867      0.36260986       1.0012460
       7650.0000
      0.30879021      0.35807139       1.0012748
       7700.0000
      0.30717373      0.35365185       1.0013035
       7750.0000
      0.30560207      0.34931517       1.0013333
       7800.0000
      0.30404186      0.34499910       1.0013634
       7850.0000
      0.30257416      0.34085339       1.0013939
       7900.0000
      0.30110741      0.33670768       1.0014255
       7950.0000
      0.29967594      0.33267117       1.0014577
       8000.0000
      0.29827118      0.32871166       1.0014904
       8050.0000
      0.29686832      0.32475641       1.0015229
       8100.0000
      0.29556274      0.32097194       1.0015560
       8150.0000
      0.29425716      0.31718749       1.0015893
       8200.0000
      0.29299164      0.31347454       1.0016239
       8250.0000
      0.29178238      0.30986023       1.0016592
       8300.0000
      0.29057217      0.30624595       1.0016939
       8350.0000
      0.28946400      0.30275798       1.0017298
       8400.0000
      0.28838539      0.29930675       1.0017671
       8450.0000
      0.28732109      0.29586855       1.0018034
       8500.0000
      0.28640556      0.29256877       1.0018409
       8550.0000
      0.28549099      0.28926900       1.0018798
       8600.0000
      0.28463173      0.28602171       1.0019182
       8650.0000
      0.28387547      0.28287014       1.0019571
       8700.0000
      0.28311920      0.27971858       1.0019974
       8750.0000
      0.28249264      0.27664927       1.0020380
       8800.0000
      0.28196144      0.27364007       1.0020782
       8850.0000
      0.28142929      0.27063084       1.0021198
       8900.0000
      0.28111553      0.26772347       1.0021627
       8950.0000
      0.28087139      0.26484886       1.0022048
       9000.0000
      0.28062725      0.26197422       1.0022481
       9050.0000
      0.28075314      0.25921455       1.0022928
       9100.0000
      0.28092480      0.25646913       1.0023374
       9150.0000
      0.28109646      0.25372368       1.0023815
       9200.0000
      0.28185940      0.25109771       1.0024269
       9250.0000
      0.28263569      0.24847458       1.0024739
       9300.0000
      0.28343105      0.24585344       1.0025200
       9350.0000
      0.28529263      0.24334961       1.0025673
       9400.0000
      0.28715420      0.24084578       1.0026162
       9450.0000
      0.28903770      0.23834291       1.0026657
       9500.0000
      0.29351902      0.23595053       1.0027145
       9550.0000
      0.29800129      0.23355816       1.0027648
       9600.0000
      0.30248260      0.23116580       1.0028166
       9650.0000
      0.31755829      0.22887672       1.0028679
       9700.0000
      0.33317184      0.22659290       1.0029192
       9750.0000
      0.34878635      0.22430907       1.0029720
       9800.0000
      0.33976364      0.22211194       1.0030266
       9850.0000
      0.32623577      0.21993066       1.0030797
       9900.0000
      0.31270695      0.21774937       1.0031338
       9950.0000
      0.29618931      0.21563585       1.0031896
       10000.000
      0.27832222      0.21355291       1.0032471
       10050.000
      0.26045513      0.21146996       1.0033012
       10100.000
      0.24910069      0.20943262       1.0033570
       10150.000
      0.24474430      0.20744428       1.0034143
       10200.000
      0.24038887      0.20545593       1.0034733
       10250.000
      0.23599434      0.20348746       1.0035339
       10300.000
      0.23146534      0.20158860       1.0035963
       10350.000
      0.22693634      0.19968975       1.0036607
       10400.000
      0.22240734      0.19779089       1.0037252
       10450.000
      0.21856689      0.19597059       1.0037845
       10500.000
      0.21479321      0.19415805       1.0038454
       10550.000
      0.21102047      0.19234551       1.0039080
       10600.000
      0.20755005      0.19057734       1.0039724
       10650.000
      0.20433426      0.18884635       1.0040354
       10700.000
      0.20111752      0.18711536       1.0041001
       10750.000
      0.19795036      0.18539409       1.0041666
       10800.000
      0.19513130      0.18374161       1.0042351
       10850.000
      0.19231129      0.18208915       1.0043027
       10900.000
      0.18949223      0.18043667       1.0043716
       10950.000
      0.18688583      0.17883292       1.0044424
       11000.000
      0.18439388      0.17725562       1.0045151
       11050.000
      0.18190289      0.17567833       1.0045877
       11100.000
      0.17944145      0.17410922       1.0046607
       11150.000
      0.17721176      0.17260253       1.0047358
       11200.000
      0.17498207      0.17109585       1.0048129
       11250.000
      0.17275238      0.16958916       1.0048891
       11300.000
      0.17062855      0.16811873       1.0049625
       11350.000
      0.16859913      0.16668071       1.0050378
       11400.000
      0.16656876      0.16524270       1.0051150
       11450.000
      0.16453934      0.16380468       1.0051944
       11500.000
      0.16268158      0.16242456       1.0052691
       11550.000
      0.16084671      0.16105220       1.0053456
       11600.000
      0.15901184      0.15967983       1.0054241
       11650.000
      0.15720081      0.15831842       1.0055046
       11700.000
      0.15550137      0.15700828       1.0055870
       11750.000
      0.15380192      0.15569812       1.0056713
       11800.000
      0.15210247      0.15438798       1.0057579
       11850.000
      0.15046787      0.15310213       1.0058468
       11900.000
      0.14892578      0.15185121       1.0059381
       11950.000
      0.14738369      0.15060030       1.0060195
       12000.000
      0.14584160      0.14934938       1.0061028
       12050.000
      0.14434433      0.14813210       1.0061882
       12100.000
      0.14287853      0.14693879       1.0062757
       12150.000
      0.14141369      0.14574547       1.0063652
       12200.000
      0.13994884      0.14455216       1.0064564
       12250.000
      0.13856888      0.14339602       1.0065499
       12300.000
      0.13722706      0.14225627       1.0066457
       12350.000
      0.13588524      0.14111651       1.0067441
       12400.000
      0.13454342      0.13997677       1.0068373
       12450.000
      0.13327408      0.13887598       1.0069276
       12500.000
      0.13202858      0.13778858       1.0070199
       12550.000
      0.13078403      0.13670117       1.0071145
       12600.000
      0.12953854      0.13561377       1.0072113
       12650.000
      0.12836170      0.13456234       1.0073098
       12700.000
      0.12720966      0.13352436       1.0074103
       12750.000
      0.12605762      0.13248636       1.0075133
       12800.000
      0.12490559      0.13144837       1.0076188
       12850.000
      0.12379742      0.13044125       1.0077269
       12900.000
      0.12271214      0.12945089       1.0078296
       12950.000
      0.12162685      0.12846054       1.0079327
       13000.000
      0.12054253      0.12747018       1.0080381
       13050.000
      0.11948967      0.12650207       1.0081460
       13100.000
      0.11846828      0.12555620       1.0082565
       13150.000
      0.11744785      0.12461033       1.0083620
       13200.000
      0.11642647      0.12366446       1.0084679
       13250.000
      0.11542416      0.12273118       1.0085762
       13300.000
      0.11446667      0.12182903       1.0086870
       13350.000
      0.11350918      0.12092689       1.0088003
       13400.000
      0.11255169      0.12002473       1.0089127
       13450.000
      0.11159420      0.11912283       1.0090253
       13500.000
      0.11069775      0.11826168       1.0091403
       13550.000
      0.10980129      0.11740053       1.0092581
       13600.000
      0.10890484      0.11653938       1.0093785
       13650.000
      0.10800838      0.11567824       1.0094973
       13700.000
      0.10713673      0.11484305       1.0096121
       13750.000
      0.10627651      0.11402147       1.0097294
       13800.000
      0.10541725      0.11319990       1.0098492
       13850.000
      0.10455799      0.11237833       1.0099716
       13900.000
      0.10371208      0.11156543       1.0100968
       13950.000
      0.10291100      0.11078092       1.0102185
       14000.000
      0.10210991      0.10999642       1.0103428
       14050.000
      0.10130787      0.10921191       1.0104699
       14100.000
      0.10050678      0.10842741       1.0105997
       14150.000
     0.099747658      0.10766988       1.0107324
       14200.000
     0.099002838      0.10692174       1.0108609
       14250.000
     0.098258018      0.10617360       1.0109872
       14300.000
     0.097513199      0.10542547       1.0111161
       14350.000
     0.096775055      0.10468328       1.0112478
       14400.000
     0.096063614      0.10396896       1.0113823
       14450.000
     0.095352173      0.10325465       1.0115196
       14500.000
     0.094639778      0.10254033       1.0116530
       14550.000
     0.093928337      0.10182601       1.0117892
       14600.000
     0.093235016      0.10112958       1.0119282
       14650.000
     0.092556000      0.10044849       1.0120702
       14700.000
     0.091877937     0.099767402       1.0122152
       14750.000
     0.091198921     0.099086322       1.0123587
       14800.000
     0.090520859     0.098405235       1.0124982
       14850.000
     0.089884758     0.097749494       1.0126404
       14900.000
     0.089259148     0.097099245       1.0127856
       14950.000
     0.088632584     0.096448995       1.0129338
       15000.000
     0.088006020     0.095798746       1.0130851
       15050.000
     0.087380409     0.095149450       1.0132245
       15100.000
     0.086764336     0.094529070       1.0133719
       15150.000
     0.086147308     0.093908690       1.0135223
       15200.000
     0.085531235     0.093288317       1.0136757
       15250.000
     0.084915161     0.092667937       1.0138323
       15300.000
     0.084306717     0.092052206       1.0139922
       15350.000
     0.083741188     0.091460176       1.0141452
       15400.000
     0.083174706     0.090868138       1.0142985
       15450.000
     0.082609177     0.090276107       1.0144549
       15500.000
     0.082042694     0.089684069       1.0146144
       15550.000
     0.081482887     0.089097954       1.0147771
       15600.000
     0.080945969     0.088533074       1.0149431
       15650.000
     0.080408096     0.087968193       1.0151001
       15700.000
     0.079871178     0.087403305       1.0152570
       15750.000
     0.079334259     0.086838424       1.0154169
       15800.000
     0.078802109     0.086278535       1.0155798
       15850.000
     0.078292847     0.085739680       1.0157459
       15900.000
     0.077784538     0.085200816       1.0159152
       15950.000
     0.077275276     0.084661961       1.0160829
       16000.000
     0.076766014     0.084123097       1.0162505
       16050.000
     0.076257706     0.083586320       1.0164213
       16100.000
     0.075757027     0.083072297       1.0165954
       16150.000
     0.075256348     0.082558282       1.0167728
       16200.000
     0.074755669     0.082044259       1.0169536
       16250.000
     0.074254990     0.081530236       1.0171337
       16300.000
     0.073754311     0.081016213       1.0173107
       16350.000
     0.073293686     0.080523103       1.0174909
       16400.000
     0.072838783     0.080032527       1.0176747
       16450.000
     0.072383881     0.079541951       1.0178619
       16500.000
     0.071928978     0.079051375       1.0180528
       16550.000
     0.071474075     0.078560799       1.0182433
       16600.000
     0.071022987     0.078084186       1.0184204
       16650.000
     0.070575714     0.077616200       1.0186008
       16700.000
     0.070127487     0.077148214       1.0187843
       16750.000
     0.069680214     0.076680228       1.0189712
       16800.000
     0.069231987     0.076212242       1.0191614
       16850.000
     0.068796158     0.075749800       1.0193552
       16900.000
     0.068391800     0.075303286       1.0195459
       16950.000
     0.067987442     0.074856780       1.0197355
       17000.000
     0.067584038     0.074410267       1.0199285
       17050.000
     0.067179680     0.073963754       1.0201250
       17100.000
     0.066776276     0.073517241       1.0203250
       17150.000
     0.066377640     0.073087387       1.0205286
       17200.000
     0.065979958     0.072661385       1.0207360
       17250.000
     0.065582275     0.072235383       1.0209356
       17300.000
     0.065184593     0.071809374       1.0211388
       17350.000
     0.064786911     0.071383372       1.0213457
       17400.000
     0.064391136     0.070962869       1.0215562
       17450.000
     0.064000130     0.070556648       1.0217706
       17500.000
     0.063609123     0.070150428       1.0219889
       17550.000
     0.063218117     0.069744207       1.0222021
       17600.000
     0.062827110     0.069337986       1.0224052
       17650.000
     0.062436104     0.068931766       1.0226118
       17700.000
     0.062071800     0.068537600       1.0228218
       17750.000
     0.061721802     0.068149865       1.0230354
       17800.000
     0.061371803     0.067762136       1.0232527
       17850.000
     0.061021805     0.067374401       1.0234738
       17900.000
     0.060671806     0.066986673       1.0236935
       17950.000
     0.060321808     0.066598937       1.0239090
       18000.000
     0.059976578     0.066228047       1.0241281
       18050.000
     0.059632301     0.065858260       1.0243510
       18100.000
     0.059288025     0.065488480       1.0245776
       18150.000
     0.058943748     0.065118693       1.0248081
       18200.000
     0.058599472     0.064748913       1.0250426
       18250.000
     0.058258057     0.064381346       1.0252759
       18300.000
     0.057936668     0.064028621       1.0255050
       18350.000
     0.057614326     0.063675888       1.0257380
       18400.000
     0.057291985     0.063323162       1.0259749
       18450.000
     0.056970596     0.062970437       1.0262158
       18500.000
     0.056648254     0.062617704       1.0264609
       18550.000
     0.056327820     0.062268659       1.0267102
       18600.000
     0.056011200     0.061932087       1.0269533
       18650.000
     0.055693626     0.061595511       1.0271842
       18700.000
     0.055377007     0.061258938       1.0274188
       18750.000
     0.055060387     0.060922362       1.0276572
       18800.000
     0.054743767     0.060585789       1.0278994
       18850.000
     0.054431915     0.060252827       1.0281455
       18900.000
     0.054136276     0.059931822       1.0283957
       18950.000
     0.053840637     0.059610818       1.0286501
       19000.000
     0.053544998     0.059289813       1.0288941
       19050.000
     0.053250313     0.058968809       1.0291420
       19100.000
     0.052954674     0.058647804       1.0293938
       19150.000
     0.052661896     0.058328841       1.0296497
       19200.000
     0.052387238     0.058022607       1.0299097
       19250.000
     0.052112579     0.057716373       1.0301740
       19300.000
     0.051838875     0.057410140       1.0304427
       19350.000
     0.051564217     0.057103906       1.0307064
       19400.000
     0.051289558     0.056797672       1.0309679
       19450.000
     0.051014900     0.056491438       1.0312336
       19500.000
     0.050744057     0.056198645       1.0315036
       19550.000
     0.050474167     0.055906620       1.0317779
       19600.000
     0.050204277     0.055614598       1.0320566
       19650.000
     0.049934387     0.055322573       1.0323400
       19700.000
     0.049664497     0.055030547       1.0326228
       19750.000
     0.049393654     0.054738525       1.0328892
       19800.000
     0.049126625     0.054455075       1.0331597
       19850.000
     0.048860550     0.054176204       1.0334344
       19900.000
     0.048594475     0.053897336       1.0337133
       19950.000
     0.048329353     0.053618465       1.0339965
       20000.000
     0.048063278     0.053339593       1.0342842
